Sensor Model:	DT-670-SD-1.4L
Serial Number:	D-001
Data Format:	2	(Volts/Kelvin)
SetPoint Limit:	285.2240	(Kelvin)
Temperature coefficient:	1 (Negative)
Number of Breakpoints:	89

No.	Units	Temperature (K)

1	0.5982 282.5020
2	0.6324 267.5090
3	0.6641 253.5110
4	0.6933 240.5230
5	0.7212 228.0080
6	0.7477 215.9790
7	0.7739 204.0160
8	0.7987 192.5550
9	0.8223 181.5340
10	0.8446 171.0190
11	0.8656 161.0180
12	0.8853 151.4890
13	0.9035 142.5610
14	0.9208 134.0010
15	0.9366 126.0350
16	0.9513 118.5030
17	0.9658 111.0080
18	0.9789 104.0670
19	0.9892 98.5390
20	0.9985 93.5159
21	1.0066 89.0243
22	1.0147 84.4916
23	1.0228 79.9433
24	1.0305 75.5023
25	1.0382 71.0062
26	1.0459 66.4471
27	1.0534 61.9462
28	1.0613 57.1690
29	1.0696 52.0227
30	1.0783 46.6548
31	1.0916 38.2856
32	1.0952 36.1021
33	1.0987 34.0655
34	1.1014 32.5401
35	1.1040 31.1301
36	1.1062 29.9695
37	1.1085 28.8192
38	1.1102 28.0469
39	1.1116 27.4623
40	1.1131 26.8572
41	1.1148 26.2512
42	1.1162 25.8301
43	1.1177 25.4090
44	1.1185 25.2029
45	1.1205 24.7694
46	1.1218 24.5545
47	1.1249 24.1137
48	1.1269 23.8943
49	1.1269 23.8943
50	1.1295 23.6691
51	1.1327 23.4405
52	1.1366 23.2107
53	1.1411 22.9875
54	1.1620 22.0342
55	1.1715 21.5545
56	1.1845 20.8121
57	1.1968 20.0574
58	1.2008 19.7997
59	1.2126 19.0385
60	1.2321 17.7660
61	1.2479 16.7702
62	1.2597 16.0468
63	1.2716 15.3491
64	1.2796 14.8956
65	1.2915 14.2480
66	1.3033 13.6359
67	1.3150 13.0561
68	1.3266 12.5144
69	1.3378 12.0100
70	1.3522 11.3969
71	1.3658 10.8470
72	1.3786 10.3562
73	1.3904 9.9181
74	1.4066 9.3576
75	1.4186 8.9598
76	1.4334 8.4908
77	1.4480 8.0528
78	1.4649 7.5676
79	1.4871 6.9532
80	1.5399 5.5373
81	1.5614 4.9414
82	1.5760 4.5173
83	1.5865 4.1963
84	1.5941 3.9516
85	1.6003 3.7448
86	1.6066 3.5213
87	1.6143 3.2424
88	1.6259 2.8010
89	1.6367 2.3650
